B.E.(eV)           Raw Intensity       Peak Sum            Background          2p1/2              Peak 2              Peak 3              2p3/2              Peak 5              Peak 6              Peak 7              difference
 675                2782 
 674,9              2782,2 
 674,8              2792,8 
 674,7              2774,4 
 674,6              2825,8 
 674,5              2805,8 
 674,4              2782 
 674,3              2782,8 
 674,2              2785,8 
 674,1              2781 
 674                2815 
 673,9              2787 
 673,8              2734 
 673,7              2782,2 
 673,6              2767,8 
 673,5              2728 
 673,4              2793 
 673,3              2790,6 
 673,2              2775,8 
 673,1              2816,4 
 673                2793,2 
 672,9              2756 
 672,8              2756,2 
 672,7              2752,8 
 672,6              2816,8 
 672,5              2743,2 
 672,4              2808,2 
 672,3              2778,8 
 672,2              2801,8 
 672,1              2764,4 
 672                2750,6 
 671,9              2741,4 
 671,8              2738 
 671,7              2772,2 
 671,6              2784,4 
 671,5              2745,4 
 671,4              2819 
 671,3              2777 
 671,2              2792 
 671,1              2795,2 
 671                2758,4 
 670,9              2759,6 
 670,8              2767,8 
 670,7              2771,8 
 670,6              2774,6 
 670,5              2773,8 
 670,4              2797,4 
 670,3              2767 
 670,2              2754,8 
 670,1              2778,8 
 670                2729,8 
 669,9              2768,6 
 669,8              2806,2 
 669,7              2803,8 
 669,6              2777,4 
 669,5              2727,8 
 669,4              2806,4 
 669,3              2795,6 
 669,2              2764 
 669,1              2789 
 669                2770 
 668,9              2835,2 
 668,8              2779,2 
 668,7              2797,8 
 668,6              2750,2 
 668,5              2752,8 
 668,4              2758,4 
 668,3              2807 
 668,2              2772,8 
 668,1              2777,6 
 668                2782,6 
 667,9              2773,6 
 667,8              2764,4 
 667,7              2753,8 
 667,6              2705,2 
 667,5              2778,4 
 667,4              2781,8 
 667,3              2703,8 
 667,2              2720 
 667,1              2752 
 667                2769,2 
 666,9              2744 
 666,8              2747,6 
 666,7              2718,4 
 666,6              2775,4 
 666,5              2746,4 
 666,4              2766,6 
 666,3              2747,2 
 666,2              2766,2 
 666,1              2706,8 
 666                2777,6 
 665,9              2753,4 
 665,8              2719,8 
 665,7              2723,2 
 665,6              2701,8 
 665,5              2712,2 
 665,4              2691,2 
 665,3              2699,4 
 665,2              2701,8 
 665,1              2643,8 
 665                2713,4              2706,433            2704,76             2705,065            2704,763            2704,761            2705,98             2704,76             2704,903            2704,76            -0,6723633 
 664,9              2742,2              2705,458            2703,757            2704,07             2703,76             2703,758            2704,99             2703,757            2703,908            2703,757            36,7417 
 664,8              2727,6              2704,362            2702,629            2702,95             2702,632            2702,63             2703,875            2702,629            2702,791            2702,629            23,23804 
 664,7              2724                2703,313            2701,546            2701,875            2701,549            2701,547            2702,805            2701,546            2701,721            2701,546            20,68677 
 664,6              2694,4              2702,275            2700,471            2700,809            2700,475            2700,473            2701,744            2700,471            2700,661            2700,471           -7,875488 
 664,5              2694,4              2701,336            2699,492            2699,839            2699,495            2699,493            2700,777            2699,492            2699,699            2699,492           -6,936523 
 664,4              2692                2700,399            2698,509            2698,865            2698,512            2698,51             2699,808            2698,509            2698,738            2698,509           -8,398682 
 664,3              2697,8              2699,472            2697,53             2697,897            2697,533            2697,531            2698,844            2697,53             2697,787            2697,53            -1,671631 
 664,2              2681,4              2698,529            2696,529            2696,906            2696,532            2696,531            2697,857            2696,529            2696,82             2696,529           -17,12891 
 664,1              2719,4              2697,646            2695,58             2695,968            2695,583            2695,581            2696,922            2695,58             2695,911            2695,58             21,75366 
 664                2698,6              2696,645            2694,5              2694,901            2694,504            2694,502            2695,857            2694,5              2694,883            2694,5              1,955322 
 663,9              2717,2              2695,722            2693,487            2693,899            2693,49             2693,488            2694,858            2693,487            2693,933            2693,487            21,47827 
 663,8              2695,8              2694,75             2692,408            2692,834            2692,411            2692,409            2693,795            2692,408            2692,932            2692,408            1,050537 
 663,7              2676,6              2693,863            2691,397            2691,837            2691,4              2691,398            2692,799            2691,397            2692,016            2691,397           -17,26318 
 663,6              2644,2              2693,06             2690,446            2690,902            2690,449            2690,447            2691,864            2690,446            2691,181            2690,446           -48,86011 
 663,5              2685                2692,388            2689,6              2690,074            2689,603            2689,601            2691,033            2689,6              2690,476            2689,6             -7,388184 
 663,4              2718,2              2691,609            2688,615            2689,108            2688,619            2688,616            2690,065            2688,615            2689,661            2688,615            26,59082 
 663,3              2655,2              2690,753            2687,517            2688,032            2687,52             2687,518            2688,983            2687,517            2688,766            2687,517           -35,55322 
 663,2              2674,6              2690,144            2686,624            2687,164            2686,628            2686,625            2688,107            2686,624            2688,116            2686,624           -15,54395 
 663,1              2719                2689,516            2685,664            2686,233            2685,668            2685,666            2687,164            2685,664            2687,442            2685,664            29,48389 
 663                2692,6              2688,792            2684,553            2685,155            2684,557            2684,555            2686,071            2684,553            2686,667            2684,553            3,808594 
 662,9              2667,8              2688,212            2683,526            2684,167            2683,53             2683,528            2685,061            2683,526            2686,031            2683,526           -20,41187 
 662,8              2671                2687,779            2682,579            2683,266            2682,583            2682,58             2684,132            2682,579            2685,534            2682,579           -16,7793 
 662,7              2673,2              2687,407            2681,617            2682,36             2681,621            2681,619            2683,188            2681,617            2685,088            2681,617           -14,20703 
 662,6              2696,6              2687,105            2680,645            2681,454            2680,649            2680,646            2682,235            2680,645            2684,701            2680,645            9,495117 
 662,5              2690                2686,809            2679,592            2680,482            2679,596            2679,594            2681,201            2679,592            2684,306            2679,592            3,190674 
 662,4              2667,6              2686,625            2678,557            2679,544            2678,562            2678,559            2680,185            2678,557            2684,004            2678,557           -19,02466 
 662,3              2677                2686,61             2677,594            2678,7              2677,598            2677,596            2679,241            2677,594            2683,851            2677,594           -9,610107 
 662,2              2686,4              2686,662            2676,596            2677,846            2676,6              2676,598            2678,263            2676,596            2683,738            2676,596           -0,262207 
 662,1              2676,2              2686,785            2675,563            2676,99             2675,567            2675,565            2677,251            2675,563            2683,665            2675,563           -10,58521 
 662                2696,6              2687,046            2674,561            2676,202            2674,566            2674,563            2676,27             2674,561            2683,691            2674,561            9,553711 
 661,9              2659                2687,345            2673,488            2675,388            2673,492            2673,49             2675,218            2673,488            2683,708            2673,488           -28,34473 
 661,8              2692,6              2687,875            2672,536            2674,752            2672,541            2672,538            2674,287            2672,536            2683,901            2672,536            4,725586 
 661,7              2696,2              2688,397            2671,469            2674,066            2671,474            2671,471            2673,242            2671,469            2684,021            2671,469            7,802979 
 661,6              2680,8              2689,012            2670,387            2673,443            2670,392            2670,389            2672,183            2670,387            2684,154            2670,387           -8,212402 
 661,5              2725                2689,78             2669,353            2672,959            2669,357            2669,354            2671,171            2669,353            2684,348            2669,353            35,22021 
 661,4              2709,6              2690,5              2668,167            2672,433            2668,172            2668,169            2670,009            2668,167            2684,386            2668,167            19,10034 
 661,3              2695,6              2691,371            2667,03             2672,079            2667,034            2667,031            2668,896            2667,03             2684,45             2667,03             4,229004 
 661,2              2725,6              2692,385            2665,935            2671,912            2665,939            2665,936            2667,824            2665,935            2684,511            2665,935            33,21533 
 661,1              2675,2              2693,399            2664,736            2671,808            2664,741            2664,738            2666,651            2664,736            2684,406            2664,736           -18,19922 
 661                2686                2694,679            2663,701            2672,057            2663,706            2663,703            2665,642            2663,701            2684,376            2663,701           -8,678711 
 660,9              2705                2696,028            2662,627            2672,481            2662,633            2662,629            2664,594            2662,627            2684,201            2662,627            8,972168 
 660,8              2668,2              2697,427            2661,486            2673,081            2661,491            2661,488            2663,479            2661,486            2683,832            2661,486           -29,22656 
 660,7              2721,2              2699,068            2660,464            2674,068            2660,469            2660,466            2662,484            2660,464            2683,438            2660,464            22,13159 
 660,6              2700,2              2700,672            2659,262            2675,175            2659,268            2659,264            2661,31             2659,262            2682,704            2659,262           -0,4719238 
 660,5              2696,2              2702,497            2658,126            2676,675            2658,131            2658,128            2660,202            2658,126            2681,865            2658,126           -6,296875 
 660,4              2697,6              2704,511            2657                2678,542            2657,005            2657,001            2659,104            2657                2680,856            2657               -6,910889 
 660,3              2706,8              2706,725            2655,865            2680,79             2655,87             2655,866            2657,999            2655,865            2679,656            2655,865            7,543945E-02 
 660,2              2740,2              2709,137            2654,695            2683,416            2654,701            2654,697            2656,861            2654,695            2678,242            2654,695            31,06323 
 660,1              2696,8              2711,703            2653,411            2686,37             2653,417            2653,413            2655,607            2653,411            2676,539            2653,411           -14,90283 
 660                2705                2714,707            2652,266            2689,924            2652,272            2652,269            2654,496            2652,266            2674,812            2652,266           -9,706787 
 659,9              2728,8              2718,012            2651,091            2693,927            2651,097            2651,093            2653,353            2651,091            2672,906            2651,091            10,78809 
 659,8              2716,2              2721,6              2649,833            2698,345            2649,839            2649,835            2652,129            2649,833            2670,783            2649,833           -5,400391 
 659,7              2741,2              2725,613            2648,612            2703,298            2648,618            2648,614            2650,944            2648,612            2668,586            2648,612            15,58691 
 659,6              2706,6              2729,953            2647,304            2708,671            2647,311            2647,306            2649,672            2647,304            2666,209            2647,304           -23,35254 
 659,5              2729,2              2734,824            2646,107            2714,645            2646,114            2646,109            2648,512            2646,107            2663,872            2646,107           -5,624512 
 659,4              2709                2740,047            2644,831            2721,018            2644,837            2644,833            2647,274            2644,831            2661,406            2644,831           -31,04712 
 659,3              2723,2              2745,762            2643,617            2727,912            2643,624            2643,62             2646,101            2643,617            2658,973            2643,618           -22,56177 
 659,2              2761,4              2751,83             2642,353            2735,168            2642,36             2642,355            2644,877            2642,353            2656,48             2642,353            9,569824 
 659,1              2764,2              2758,154            2640,957            2742,67             2640,964            2640,959            2643,524            2640,957            2653,863            2640,958            6,046387 
 659                2743                2764,8              2639,547            2750,468            2639,554            2639,549            2642,158            2639,547            2651,256            2639,548           -21,80029 
 658,9              2793,8              2771,803            2638,203            2758,581            2638,211            2638,205            2640,86             2638,203            2648,755            2638,205            21,99707 
 658,8              2791,6              2778,863            2636,686            2766,7              2636,694            2636,688            2639,391            2636,686            2646,13             2636,688            12,7373 
 658,7              2819,6              2786,07             2635,17             2774,904            2635,179            2635,173            2637,925            2635,17             2643,567            2635,174            33,52979 
 658,6              2776                2793,249            2633,557            2783,01             2633,566            2633,56             2636,364            2633,557            2640,974            2633,561           -17,24854 
 658,5              2765,6              2800,53             2632,083            2791,143            2632,093            2632,086            2634,944            2632,083            2638,593            2632,089           -34,92944 
 658,4              2808                2807,707            2630,639            2799,093            2630,649            2630,642            2633,556            2630,639            2636,316            2630,646            0,293457 
 658,3              2811,4              2814,5              2629,05             2806,582            2629,06             2629,052            2632,026            2629,05             2633,971            2629,059           -3,100586 
 658,2              2864,2              2820,918            2627,443            2813,614            2627,454            2627,446            2630,481            2627,443            2631,685            2627,455            43,28198 
 658,1              2850,8              2826,691            2625,656            2819,924            2625,667            2625,659            2628,759            2625,656            2629,291            2625,671            24,10889 
 658                2841                2831,919            2623,907            2825,615            2623,919            2623,91             2627,078            2623,907            2627,007            2623,927            9,081299 
 657,9              2836                2836,486            2622,186            2830,574            2622,198            2622,188            2625,428            2622,186            2624,816            2622,21            -0,486084 
 657,8              2861,8              2840,28             2620,475            2834,693            2620,487            2620,478            2623,792            2620,475            2622,697            2620,506            21,51978 
 657,7              2815                2843,1              2618,672            2837,775            2618,686            2618,675            2622,069            2618,672            2620,544            2618,711           -28,09961 
 657,6              2861,6              2845,112            2617,019            2839,993            2617,034            2617,022            2620,5              2617,019            2618,591            2617,069            16,48779 
 657,5              2862,8              2845,938            2615,206            2840,971            2615,221            2615,209            2618,776            2615,206            2616,523            2615,268            16,86182 
 657,4              2828,6              2845,698            2613,383            2840,834            2613,399            2613,386            2617,047            2613,383            2614,485            2613,46            -17,09741 
 657,3              2856,2              2844,428            2611,667            2839,625            2611,685            2611,67             2615,431            2611,667            2612,59             2611,763            11,77148 
 657,2              2848                2841,962            2609,854            2837,177            2609,873            2609,858            2613,723            2609,854            2610,628            2609,973            6,037842 
 657,1              2851                2838,406            2608,062            2833,603            2608,082            2608,066            2612,043            2608,062            2608,713            2608,21             12,59351 
 657                2823,2              2833,754            2606,254            2828,896            2606,276            2606,258            2610,355            2606,254            2606,804            2606,436           -10,55444 
 656,9              2808                2828,15             2604,533            2823,205            2604,556            2604,537            2608,76             2604,533            2605                2604,756           -20,1499 
 656,8              2838,2              2821,61             2602,856            2816,545            2602,881            2602,86             2607,219            2602,856            2603,256            2603,129            16,58984 
 656,7              2808,6              2814,065            2601,074            2808,849            2601,101            2601,078            2605,58             2601,074            2601,419            2601,406           -5,465088 
 656,6              2813,6              2805,794            2599,384            2800,396            2599,413            2599,388            2604,043            2599,384            2599,685            2599,787            7,805664 
 656,5              2773,6              2796,79             2597,671            2791,176            2597,703            2597,676            2602,495            2597,671            2597,937            2598,159           -23,18945 
 656,4              2774,2              2787,302            2596,086            2781,44             2596,121            2596,091            2601,084            2596,086            2596,323            2596,674           -13,10229 
 656,3              2733,4              2777,303            2594,494            2771,157            2594,532            2594,499            2599,679            2594,494            2594,707            2595,199           -43,90332 
 656,2              2773                2767,055            2593,032            2760,586            2593,073            2593,037            2598,417            2593,032            2593,226            2593,876            5,945068 
 656,1              2759,6              2756,394            2591,434            2749,562            2591,478            2591,439            2597,031            2591,434            2591,612            2592,439            3,206299 
 656                2738,6              2745,621            2589,875            2738,381            2589,923            2589,88             2595,7              2589,875            2590,04             2591,069           -7,020752 
 655,9              2770,2              2734,865            2588,38             2727,169            2588,433            2588,386            2594,449            2588,38             2588,534            2589,793            35,33521 
 655,8              2692                2724,049            2586,775            2715,844            2586,833            2586,782            2593,106            2586,775            2586,921            2588,441           -32,04932 
 655,7              2702,2              2713,65             2585,425            2704,877            2585,488            2585,432            2592,035            2585,425            2585,563            2587,382           -11,44971 
 655,6              2710,4              2703,45             2584,037            2694,047            2584,106            2584,044            2590,945            2584,037            2584,167            2586,327            6,949951 
 655,5              2676,8              2693,55             2582,617            2683,447            2582,692            2582,625            2589,844            2582,617            2582,741            2585,286           -16,74976 
 655,4              2671,6              2684,153            2581,304            2673,275            2581,385            2581,312            2588,872            2581,304            2581,423            2584,405           -12,55273 
 655,3              2688,4              2675,223            2580,003            2663,488            2580,092            2580,012            2587,937            2580,003            2580,117            2583,593            13,177 
 655,2              2679                2666,747            2578,643            2654,068            2578,74             2578,652            2586,967            2578,643            2578,753            2582,783            12,25269 
 655,1              2661,8              2658,846            2577,309            2645,125            2577,415            2577,319            2586,051            2577,309            2577,415            2582,067            2,954346 
 655                2692,4              2651,583            2576,028            2636,721            2576,143            2576,039            2585,216            2576,028            2576,13             2581,476            40,81689 
 654,9              2680,4              2644,819            2574,641            2628,706            2574,766            2574,653            2584,306            2574,641            2574,739            2580,855            35,5813 
 654,8              2670,2              2638,705            2573,29             2621,226            2573,425            2573,302            2583,463            2573,29             2573,384            2580,353            31,49512 
 654,7              2634,2              2633,247            2571,968            2614,279            2572,115            2571,981            2582,685            2571,968            2572,059            2579,966            0,953125 
 654,6              2666                2628,524            2570,76             2607,938            2570,92             2570,775            2582,058            2570,76             2570,849            2579,786            37,47632 
 654,5              2612,8              2624,307            2569,444            2601,969            2569,617            2569,46             2581,36             2569,444            2569,529            2579,591           -11,50684 
 654,4              2661,4              2620,864            2568,3              2596,634            2568,488            2568,317            2580,876            2568,3              2568,383            2579,666            40,53638 
 654,3              2611,2              2617,836            2566,99             2591,568            2567,194            2567,009            2580,27             2566,99             2567,071            2579,676           -6,636475 
 654,2              2560,6              2615,533            2565,843            2587,079            2566,063            2565,864            2579,872            2565,843            2565,921            2579,95            -54,93335 
 654,1              2588,4              2613,931            2564,861            2583,137            2565,099            2564,883            2579,688            2564,861            2564,936            2580,491           -25,53076 
 654                2614                2612,742            2563,782            2579,456            2564,04             2563,807            2579,459            2563,782            2563,855            2581,037            1,257813 
 653,9              2595,2              2611,946            2562,615            2576,011            2562,893            2562,642            2579,196            2562,615            2562,686            2581,593           -16,74561 
 653,8              2564,2              2611,659            2561,507            2572,92             2561,807            2561,536            2579,05             2561,507            2561,576            2582,306           -47,45947 
 653,7              2604,2              2611,893            2560,498            2570,196            2560,821            2560,53             2579,063            2560,498            2560,565            2583,208           -7,692627 
 653,6              2590,4              2612,381            2559,353            2567,574            2559,701            2559,387            2579,004            2559,353            2559,418            2584,061           -21,98096 
 653,5              2622                2613,269            2558,25             2565,207            2558,624            2558,287            2579,054            2558,25             2558,313            2585,032            8,730713 
 653,4              2571,4              2614,378            2557,038            2562,918            2557,44             2557,078            2579,067            2557,038            2557,099            2585,964           -42,97827 
 653,3              2632,6              2615,952            2555,99             2560,956            2556,422            2556,034            2579,321            2555,99             2556,05             2587,118            16,64771 
 653,2              2632                2617,588            2554,735            2558,931            2555,199            2554,783            2579,446            2554,735            2554,793            2588,11             14,41235 
 653,1              2625,4              2619,465            2553,478            2557,027            2553,976            2553,531            2579,654            2553,478            2553,535            2589,133            5,935059 
 653                2631,2              2621,572            2552,239            2555,246            2552,772            2552,296            2579,968            2552,239            2552,294            2590,189            9,628174 
 652,9              2629,8              2623,844            2550,976            2553,533            2551,548            2551,039            2580,353            2550,976            2551,03             2591,223            5,956055 
 652,8              2601,8              2626,281            2549,714            2551,897            2550,326            2549,782            2580,84             2549,714            2549,767            2592,242           -24,48145 
 652,7              2652,4              2628,944            2548,541            2550,414            2549,195            2548,615            2581,52             2548,541            2548,592            2593,314            23,45581 
 652,6              2655,6              2631,554            2547,196            2548,813            2547,894            2547,275            2582,141            2547,196            2547,246            2594,162            24,04614 
 652,5              2632,6              2634,242            2545,835            2547,243            2546,582            2545,922            2582,865            2545,835            2545,884            2594,922           -1,641846 
 652,4              2642                2637,079            2544,547            2545,782            2545,344            2544,64             2583,788            2544,547            2544,594            2595,663            4,921387 
 652,3              2648,8              2639,942            2543,223            2544,316            2544,074            2543,324            2584,812            2543,223            2543,269            2596,26             8,85791 
 652,2              2658,6              2642,821            2541,872            2542,848            2542,78             2541,982            2585,951            2541,872            2541,917            2596,701            15,7793 
 652,1              2685,8              2645,698            2540,483            2541,365            2541,453            2540,603            2587,208            2540,483            2540,528            2596,959            40,10254 
 652                2631                2648,499            2539                2539,802            2540,035            2539,129            2588,531            2539                2539,043            2596,959           -17,49902 
 651,9              2641,8              2651,494            2537,694            2538,431            2538,799            2537,833            2590,207            2537,694            2537,737            2596,959           -9,694092 
 651,8              2692,6              2654,463            2536,348            2537,031            2537,527            2536,498            2592,03             2536,348            2536,389            2596,729            38,13696 
 651,7              2661,4              2657,268            2534,829            2535,466            2536,088            2534,99             2593,877            2534,829            2534,869            2596,121            4,132324 
 651,6              2662,2              2660,188            2533,408            2534,006            2534,753            2533,582            2596,038            2533,408            2533,447            2595,399            2,012451 
 651,5              2652                2663,118            2531,979            2532,545            2533,417            2532,167            2598,418            2531,979            2532,018            2594,45            -11,11792 
 651,4              2643                2666,108            2530,58             2531,118            2532,118            2530,782            2601,069            2530,58             2530,618            2593,304           -23,10815 
 651,3              2686,4              2669,17             2529,207            2529,719            2530,852            2529,423            2604,009            2529,207            2529,243            2591,956            17,22974 
 651,2              2660,2              2672,142            2527,684            2528,175            2529,446            2527,916            2607,074            2527,684            2527,72             2590,23            -11,94238 
 651,1              2642,4              2675,281            2526,243            2526,715            2528,131            2526,492            2610,521            2526,243            2526,279            2588,359           -32,88159 
 651                2665,6              2678,579            2524,857            2525,312            2526,881            2525,124            2614,334            2524,857            2524,892            2586,322           -12,979 
 650,9              2708,8              2681,929            2523,389            2523,828            2525,56             2523,675            2618,4              2523,389            2523,423            2583,988            26,87085 
 650,8              2695                2685,298            2521,772            2522,197            2524,103            2522,078            2622,676            2521,772            2521,805            2581,3              9,702393 
 650,7              2684                2688,902            2520,196            2520,608            2522,698            2520,523            2627,366            2520,196            2520,229            2578,459           -4,901611 
 650,6              2702,6              2692,772            2518,652            2519,051            2521,338            2519,001            2632,489            2518,652            2518,684            2575,468            9,827637 
 650,5              2656,8              2696,843            2517,04             2517,427            2519,925            2517,413            2637,961            2517,04             2517,071            2572,245           -40,04272 
 650,4              2668,8              2701,367            2515,575            2515,951            2518,673            2515,974            2644,019            2515,575            2515,606            2569,019           -32,56689 
 650,3              2677,6              2706,197            2514,066            2514,431            2517,392            2514,491            2650,499            2514,066            2514,096            2565,616           -28,59692 
 650,2              2713,4              2711,374            2512,522            2512,878            2516,092            2512,976            2657,421            2512,522            2512,552            2562,065            2,026367 
 650,1              2738,8              2716,854            2510,854            2511,2              2514,683            2511,339            2664,725            2510,854            2510,883            2558,294            21,94629 
 650                2728,6              2722,699            2509,096            2509,433            2513,199            2509,613            2672,451            2509,096            2509,124            2554,357            5,901367 
 649,9              2715                2729,066            2507,366            2507,694            2511,758            2507,918            2680,739            2507,366            2507,394            2550,392           -14,06616 
 649,8              2744,2              2736,005            2505,676            2505,996            2510,371            2506,265            2689,621            2505,676            2505,703            2546,426            8,19458 
 649,7              2745                2743,393            2503,883            2504,195            2508,896            2504,512            2698,954            2503,883            2503,909            2542,339            1,607422 
 649,6              2765,6              2751,358            2502,081            2502,385            2507,424            2502,753            2708,852            2502,082            2502,107            2538,239            14,24243 
 649,5              2772,2              2759,844            2500,204            2500,501            2505,889            2500,923            2719,241            2500,205            2500,23             2534,079            12,35645 
 649,4              2755,6              2768,918            2498,3              2498,59             2504,336            2499,069            2730,177            2498,301            2498,325            2529,92            -13,31836 
 649,3              2795,8              2778,676            2496,444            2496,727            2502,839            2497,267            2741,742            2496,446            2496,469            2525,851            17,12427 
 649,2              2804,2              2788,918            2494,449            2494,725            2501,208            2495,33             2753,725            2494,451            2494,474            2521,699            15,28198 
 649,1              2852                2799,762            2492,419            2492,689            2499,546            2493,363            2766,237            2492,422            2492,443            2517,577            52,23779 
 649                2826,8              2811,053            2490,223            2490,487            2497,718            2491,236            2779,112            2490,227            2490,247            2513,367            15,74683 
 648,9              2804,2              2823,026            2488,104            2488,362            2495,964            2489,19             2792,582            2488,109            2488,127            2509,316           -18,82568 
 648,8              2843,2              2835,657            2486,053            2486,305            2494,273            2487,218            2806,62             2486,059            2486,076            2505,424            7,54248 
 648,7              2836,2              2848,697            2483,865            2484,112            2492,437            2485,116            2820,973            2483,874            2483,888            2501,491           -12,49731 
 648,6              2890                2862,281            2481,694            2481,935            2490,605            2483,037            2835,774            2481,704            2481,716            2497,672            27,71899 
 648,5              2866,6              2876,143            2479,336            2479,572            2488,572            2480,779            2850,761            2479,35             2479,358            2493,77            -9,542725 
 648,4              2882                2890,501            2477,048            2477,279            2486,589            2478,597            2866,152            2477,066            2477,07             2490,039           -8,501221 
 648,3              2890,6              2905,182            2474,702            2474,927            2484,527            2476,365            2881,776            2474,724            2474,723            2486,35            -14,58154 
 648,2              2958                2920,124            2472,319            2472,54             2482,403            2474,104            2897,578            2472,347            2472,34             2482,726            37,87573 
 648,1              2956                2935,089            2469,704            2469,92             2480,019            2471,618            2913,323            2469,74             2469,724            2478,968            20,91113 
 648                2936,4              2950,212            2467,087            2467,299            2477,602            2469,138            2929,151            2467,132            2467,107            2475,304           -13,81201 
 647,9              2940                2965,487            2464,526            2464,734            2475,209            2466,722            2945,062            2464,584            2464,546            2471,788           -25,48657 
 647,8              2997                2980,767            2461,945            2462,148            2472,76             2464,293            2960,916            2462,018            2461,965            2468,339            16,23315 
 647,7              2980,4              2995,768            2459,166            2459,365            2470,076            2461,673            2976,434            2459,257            2459,185            2464,775           -15,36792 
 647,6              2973,4              3010,67             2456,433            2456,628            2467,399            2459,104            2991,802            2456,546            2456,452            2461,336           -37,27026 
 647,5              2994,8              3025,33             2453,714            2453,905            2464,698            2456,556            3006,882            2453,855            2453,732            2457,984           -30,52954 
 647,4              3050,4              3039,56             2450,915            2451,102            2461,868            2453,932            3021,502            2451,09             2450,933            2454,62             10,8396 
 647,3              3029                3053,158            2447,921            2448,105            2458,789            2451,118            3035,471            2448,138            2447,939            2451,125           -24,1582 
 647,2              3065,6              3066,262            2444,989            2445,169            2455,717            2448,368            3048,929            2445,256            2445,007            2447,749           -0,6616211 
 647,1              3094,2              3078,602            2441,925            2442,102            2452,462            2445,489            3061,611            2442,254            2441,943            2444,294            15,59766 
 647                3069,2              3090,091            2438,756            2438,93             2449,053            2442,504            3073,427            2439,159            2438,774            2440,782           -20,89063 
 646,9              3079                3100,817            2435,66             2435,83             2445,671            2439,59             3084,47             2436,151            2435,677            2437,386           -21,81665 
 646,8              3094,2              3110,579            2432,521            2432,688            2442,206            2436,631            3094,536            2433,119            2432,537            2433,986           -16,37891 
 646,7              3107,6              3119,25             2429,32             2429,484            2438,644            2433,606            3103,494            2430,046            2429,337            2430,56            -11,64966 
 646,6              3140,4              3126,759            2426,065            2426,226            2434,996            2430,521            3111,273            2426,942            2426,081            2427,11             13,64087 
 646,5              3123,6              3132,943            2422,689            2422,848            2431,202            2427,307            3117,705            2423,746            2422,706            2423,567           -9,343262 
 646,4              3121,4              3137,895            2419,359            2419,514            2427,432            2424,129            3122,877            2420,627            2419,375            2420,093           -16,49536 
 646,3              3158,4              3141,5              2416,024            2416,177            2423,644            2420,937            3126,669            2417,543            2416,04             2416,636            16,90039 
 646,2              3140,2              3143,557            2412,556            2412,706            2419,712            2417,598            3128,875            2414,367            2412,571            2413,064           -3,357178 
 646,1              3161,8              3144,209            2409,136            2409,283            2415,823            2414,294            3129,628            2411,289            2409,151            2409,557            17,59106 
 646                3103,4              3143,285            2405,634            2405,778            2411,853            2410,891            3128,751            2408,184            2405,648            2405,98            -39,8855 
 645,9              3113,4              3141,035            2402,313            2402,456            2408,069            2407,655            3126,485            2405,325            2402,328            2402,598           -27,6355 
 645,8              3195,2              3137,013            2398,949            2399,089            2404,25             2404,356            3122,372            2402,494            2398,963            2399,182            58,18677 
 645,7              3185,8              3130,598            2395,301            2395,438            2400,159            2400,756            3115,785            2399,459            2395,315            2395,491            55,2019 
 645,6              3134,4              3122,125            2391,672            2391,808            2396,104            2397,156            3107,046            2396,534            2391,687            2391,827            12,27441 
 645,5              3152,8              3111,81             2388,203            2388,336            2392,225            2393,695            3096,359            2393,867            2388,217            2388,328            40,99023 
 645,4              3080,4              3099,504            2384,66             2384,791            2388,294            2390,137            3083,57             2391,237            2384,674            2384,761           -19,104 
 645,3              3070,2              3085,611            2381,347            2381,475            2384,614            2386,781            3069,074            2388,959            2381,36             2381,428           -15,41138 
 645,2              3047                3070,07             2378,056            2378,183            2380,981            2383,42             3052,795            2386,837            2378,07             2378,121           -23,06982 
 645,1              3086,6              3053,051            2374,832            2374,956            2377,437            2380,1              3034,893            2384,927            2374,845            2374,884            33,54907 
 645                3080,4              3034,521            2371,465            2371,587            2373,775            2376,613            3015,319            2383,032            2371,478            2371,506            45,87891 
 644,9              3025,6              3014,788            2368,108            2368,228            2370,146            2373,114            2994,368            2381,317            2368,121            2368,14             10,81177 
 644,8              2998                2994,174            2364,921            2365,04             2366,713            2369,764            2972,348            2379,956            2364,934            2364,947            3,826172 
 644,7              2951,8              2972,784            2361,816            2361,933            2363,383            2366,478            2949,351            2378,87             2361,829            2361,836           -20,98364 
 644,6              2927,4              2950,832            2358,854            2358,969            2360,219            2363,32             2925,576            2378,136            2358,867            2358,87            -23,43237 
 644,5              2978,8              2928,443            2355,964            2356,077            2357,148            2360,22             2901,139            2377,69             2355,976            2355,976            50,35718 
 644,4              2935                2905,522            2352,893            2353,004            2353,916            2356,929            2875,931            2377,291            2352,905            2352,902            29,47754 
 644,3              2838,8              2882,539            2349,957            2350,067            2350,838            2353,767            2850,41             2377,266            2349,969            2349,965           -43,73877 
 644,2              2861,6              2859,848            2347,332            2347,44             2348,087            2350,909            2824,926            2377,795            2347,343            2347,337            1,751709 
 644,1              2800,6              2837,182            2344,622            2344,728            2345,267            2347,965            2799,199            2378,492            2344,633            2344,626           -36,58154 
 644                2777,4              2814,981            2342,105            2342,21             2342,655            2345,215            2773,671            2379,635            2342,117            2342,109           -37,58105 
 643,9              2774,2              2793,238            2339,658            2339,761            2340,125            2342,536            2748,328            2381,104            2339,669            2339,66            -19,0376 
 643,8              2771,8              2771,992            2337,213            2337,315            2337,609            2339,863            2723,209            2382,834            2337,224            2337,215           -0,1923828 
 643,7              2747,6              2751,371            2334,768            2334,868            2335,103            2337,197            2698,447            2384,814            2334,779            2334,769           -3,770752 
 643,6              2727,2              2731,516            2332,395            2332,494            2332,678            2334,611            2674,186            2387,115            2332,406            2332,396           -4,315674 
 643,5              2710,8              2712,515            2330,082            2330,18             2330,321            2332,093            2650,529            2389,708            2330,093            2330,083           -1,714844 
 643,4              2661,8              2694,41             2327,816            2327,913            2328,018            2329,633            2627,527            2392,572            2327,827            2327,817           -32,61011 
 643,3              2657                2677,351            2325,706            2325,801            2325,876            2327,339            2605,345            2395,801            2325,716            2325,706           -20,35107 
 643,2              2660,2              2661,248            2323,604            2323,698            2323,749            2325,066            2583,919            2399,221            2323,615            2323,604           -1,04834 
 643,1              2653,8              2646,081            2321,485            2321,577            2321,608            2322,787            2563,246            2402,791            2321,495            2321,485            7,719482 
 643                2612,8              2631,905            2319,38             2319,471            2319,485            2320,534            2543,417            2406,506            2319,39             2319,38            -19,10498 
 642,9              2620,2              2618,827            2317,404            2317,494            2317,494            2318,423            2524,566            2410,455            2317,414            2317,404            1,373047 
 642,8              2647,2              2606,663            2315,397            2315,486            2315,475            2316,293            2506,54             2414,448            2315,407            2315,397            40,53662 
 642,7              2579,4              2595,335            2313,294            2313,381            2313,362            2314,078            2489,305            2418,375            2313,304            2313,294           -15,93555 
 642,6              2609,8              2585,109            2311,409            2311,495            2311,469            2312,092            2473,16             2422,519            2311,419            2311,409            24,69116 
 642,5              2569,4              2575,621            2309,417            2309,502            2309,469            2310,009            2457,793            2426,505            2309,427            2309,417           -6,221436 
 642,4              2580                2567,047            2307,552            2307,636            2307,599            2308,064            2443,419            2430,528            2307,562            2307,552            12,95313 
 642,3              2601,4              2559,151            2305,646            2305,729            2305,689            2306,087            2429,844            2434,377            2305,656            2305,646            42,24927 
 642,2              2524,8              2551,835            2303,663            2303,745            2303,701            2304,041            2417,026            2437,965            2303,672            2303,663           -27,03516 
 642,1              2576,8              2545,348            2301,927            2302,008            2301,963            2302,25             2405,25             2441,576            2301,937            2301,927            31,45239 
 642                2545,8              2539,19             2300,013            2300,093            2300,046            2300,288            2394,073            2444,734            2300,023            2300,013            6,609619 
 641,9              2535,4              2533,557            2298,196            2298,275            2298,227            2298,43             2383,73             2447,671            2298,205            2298,196            1,842529 
 641,8              2529,4              2528,3              2296,407            2296,485            2296,436            2296,605            2374,114            2450,28             2296,417            2296,407            1,100098 
 641,7              2491                2523,33             2294,633            2294,709            2294,66             2294,8              2365,183            2452,5              2294,641            2294,633           -32,33008 
 641,6              2537,4              2518,675            2292,98             2293,055            2293,006            2293,121            2356,997            2454,406            2292,989            2292,98             18,72461 
 641,5              2528,2              2513,985            2291,167            2291,242            2291,192            2291,287            2349,245            2455,679            2291,176            2291,167            14,2146 
 641,4              2517                2509,372            2289,379            2289,453            2289,402            2289,48             2342,068            2456,476            2289,387            2289,379            7,627686 
 641,3              2547,6              2504,778            2287,622            2287,695            2287,645            2287,707            2335,431            2456,779            2287,63             2287,622            42,82251 
 641,2              2510,6              2500,008            2285,757            2285,829            2285,779            2285,83             2329,164            2456,426            2285,766            2285,757            10,59229 
 641,1              2459,2              2495,23             2284,01             2284,081            2284,031            2284,071            2323,449            2455,629            2284,018            2284,01            -36,03052 
 641                2498,2              2490,453            2282,427            2282,498            2282,448            2282,48             2318,304            2454,425            2282,436            2282,427            7,74707 
 640,9              2458,2              2485,334            2280,71             2280,779            2280,729            2280,755            2313,391            2452,51             2280,718            2280,71            -27,13428 
 640,8              2481                2480,104            2279,119            2279,188            2279,139            2279,158            2308,939            2450,15             2279,127            2279,119            0,8955078 
 640,7              2473,4              2474,536            2277,448            2277,516            2277,467            2277,482            2304,713            2447,143            2277,456            2277,448           -1,136475 
 640,6              2474,6              2468,709            2275,797            2275,864            2275,815            2275,826            2300,78             2443,603            2275,804            2275,797            5,890869 
 640,5              2470,4              2462,591            2274,135            2274,202            2274,153            2274,162            2297,088            2439,521            2274,143            2274,135            7,808594 
 640,4              2480,4              2456,196            2272,483            2272,548            2272,5              2272,506            2293,627            2434,938            2272,491            2272,483            24,20386 
 640,3              2411,4              2449,479            2270,792            2270,856            2270,808            2270,813            2290,327            2429,833            2270,799            2270,792           -38,07861 
 640,2              2418                2442,719            2269,324            2269,388            2269,34             2269,343            2287,431            2424,505            2269,332            2269,324           -24,71851 
 640,1              2387,6              2435,675            2267,83             2267,893            2267,845            2267,847            2284,666            2418,735            2267,837            2267,83            -48,0752 
 640                2425,8              2428,501            2266,431            2266,494            2266,447            2266,448            2282,139            2412,691            2266,439            2266,431           -2,700684 
 639,9              2382,2              2420,989            2264,901            2264,963            2264,917            2264,917            2279,605            2406,186            2264,909            2264,901           -38,78906 
 639,8              2435,2              2413,438            2263,511            2263,572            2263,526            2263,526            2277,322            2399,53             2263,519            2263,511            21,76245 
 639,7              2400,8              2405,565            2261,94             2262,001            2261,955            2261,954            2274,955            2392,455            2261,948            2261,94            -4,765381 
 639,6              2401                2397,688            2260,479            2260,539            2260,493            2260,492            2272,783            2385,29             2260,486            2260,479            3,312012 
 639,5              2429                2389,735            2259,011            2259,071            2259,025            2259,024            2270,681            2377,973            2259,019            2259,011            39,26538 
 639,4              2371,8              2381,645            2257,446            2257,505            2257,46             2257,458            2268,546            2370,454            2257,453            2257,446           -9,844482 
 639,3              2400,2              2373,732            2256,066            2256,124            2256,079            2256,077            2266,654            2363,055            2256,073            2256,066            26,46753 
 639,2              2356,6              2365,757            2254,587            2254,644            2254,599            2254,598            2264,713            2355,543            2254,594            2254,587           -9,156982 
 639,1              2352,2              2357,984            2253,248            2253,304            2253,26             2253,258            2262,956            2348,189            2253,254            2253,248           -5,783936 
 639                2323,2              2350,323            2251,918            2251,974            2251,931            2251,929            2261,248            2340,909            2251,925            2251,918           -27,12305 
 638,9              2372,8              2342,882            2250,681            2250,737            2250,693            2250,691            2259,665            2333,815            2250,688            2250,681            29,91772 
 638,8              2337,2              2335,423            2249,275            2249,33             2249,287            2249,285            2257,942            2326,674            2249,282            2249,275            1,776855 
 638,7              2336,4              2328,262            2247,983            2248,037            2247,994            2247,992            2256,358            2319,805            2247,99             2247,983            8,138184 
 638,6              2327,2              2321,297            2246,689            2246,743            2246,7              2246,698            2254,795            2313,111            2246,696            2246,689            5,903076 
 638,5              2314,8              2314,582            2245,421            2245,474            2245,432            2245,43             2253,277            2306,646            2245,428            2245,421            0,2185059 
 638,4              2322,2              2308,139            2244,19             2244,243            2244,201            2244,199            2251,814            2300,437            2244,197            2244,19             14,06128 
 638,3              2300,2              2301,911            2242,931            2242,983            2242,942            2242,939            2250,337            2294,428            2242,938            2242,931           -1,711426 
 638,2              2340,4              2296,013            2241,741            2241,792            2241,751            2241,749            2248,943            2288,735            2241,747            2241,741            44,38721 
 638,1              2339                2290,236            2240,413            2240,463            2240,423            2240,42             2247,422            2283,151            2240,419            2240,413            48,7644 
 638                2223,8              2284,727            2239,085            2239,135            2239,094            2239,093            2245,912            2277,826            2239,091            2239,085           -60,92725 
 637,9              2276,8              2279,864            2238,135            2238,185            2238,145            2238,143            2244,791            2273,135            2238,142            2238,135           -3,063721 
 637,8              2294,6              2275,083            2237,007            2237,056            2237,016            2237,014            2243,498            2268,52             2237,013            2237,007            19,51733 
 637,7              2283,6              2270,501            2235,815            2235,864            2235,825            2235,823            2242,15             2264,095            2235,822            2235,815            13,09937 
 637,6              2286,4              2266,204            2234,657            2234,705            2234,666            2234,664            2240,842            2259,949            2234,663            2234,657            20,1958 
 637,5              2279                2262,141            2233,485            2233,532            2233,493            2233,491            2239,526            2256,03             2233,49             2233,485            16,85864 
 637,4              2286,8              2258,336            2232,333            2232,381            2232,342            2232,34             2238,237            2252,364            2232,339            2232,333            28,46362 
 637,3              2239,4              2254,727            2231,152            2231,199            2231,161            2231,159            2236,924            2248,887            2231,158            2231,152           -15,32739 
 637,2              2233,6              2251,488            2230,125            2230,171            2230,133            2230,131            2235,77             2245,776            2230,131            2230,125           -17,88794 
 637,1              2231,8              2248,467            2229,113            2229,159            2229,121            2229,119            2234,635            2242,879            2229,119            2229,113           -16,6665 
 637                2241,4              2245,641            2228,104            2228,15             2228,112            2228,11             2233,508            2240,172            2228,11             2228,104           -4,240723 
 636,9              2217,6              2242,957            2227,06             2227,105            2227,068            2227,066            2232,349            2237,603            2227,066            2227,06            -25,35693 
 636,8              2202                2240,514            2226,092            2226,136            2226,099            2226,097            2231,27             2235,271            2226,097            2226,092           -38,51416 
 636,7              2190                2238,273            2225,172            2225,216            2225,179            2225,177            2230,243            2233,139            2225,177            2225,172           -48,27319 
 636,6              2250,4              2236,21             2224,289            2224,332            2224,296            2224,294            2229,257            2231,179            2224,294            2224,289            14,19019 
 636,5              2242,6              2234,071            2223,202            2223,245            2223,209            2223,207            2228,069            2229,142            2223,207            2223,202            8,528809 
 636,4              2232,4              2232,073            2222,137            2222,18             2222,145            2222,143            2226,907            2227,241            2222,143            2222,137            0,3273926 
 636,3              2215,6              2230,209            2221,103            2221,146            2221,11             2221,108            2225,779            2225,473            2221,108            2221,103           -14,60889 
 636,2              2246                2228,495            2220,121            2220,164            2220,128            2220,126            2224,706            2223,851            2220,127            2220,121            17,50488 
 636,1              2233,4              2226,762            2219,035            2219,077            2219,042            2219,04             2223,531            2222,208            2219,041            2219,035            6,638184 
 636                2196,8              2225,144            2217,988            2218,029            2217,994            2217,992            2222,396            2220,677            2217,993            2217,988           -28,34399 
 635,9              2204,2              2223,713            2217,058            2217,099            2217,065            2217,063            2221,383            2219,331            2217,063            2217,058           -19,51318 
 635,8              2205,4              2222,314            2216,101            2216,141            2216,107            2216,105            2220,344            2218,014            2216,106            2216,101           -16,91455 
 635,7              2208                2220,962            2215,136            2215,177            2215,143            2215,141            2219,3              2216,742            2215,141            2215,136           -12,9624 
 635,6              2241,6              2219,646            2214,16             2214,2              2214,167            2214,165            2218,247            2215,503            2214,165            2214,16             21,95435 
 635,5              2202                2218,256            2213,069            2213,108            2213,075            2213,073            2217,081            2214,189            2213,074            2213,069           -16,25562 
 635,4              2215,8              2217,029            2212,106            2212,145            2212,112            2212,11             2216,044            2213,036            2212,111            2212,106           -1,229248 
 635,3              2183,2              2215,785            2211,093            2211,132            2211,099            2211,097            2214,961            2211,864            2211,098            2211,093           -32,58545 
 635,2              2186                2214,674            2210,186            2210,225            2210,192            2210,19             2213,985            2210,822            2210,191            2210,186           -28,67407 
 635,1              2205,2              2213,574            2209,267            2209,305            2209,272            2209,271            2212,998            2209,79             2209,271            2209,267           -8,374023 
 635                2245,8              2212,427            2208,28             2208,318            2208,286            2208,284            2211,946            2208,709            2208,285            2208,28            -4,146729 
 634,9              2198,4 
 634,8              2206 
 634,7              2180,2 
 634,6              2197,6 
 634,5              2166,6 
 634,4              2183,4 
 634,3              2181,6 
 634,2              2153,8 
 634,1              2157,8 
 634                2184,2 
 633,9              2183 
 633,8              2120 
 633,7              2174 
 633,6              2135,6 
 633,5              2153,4 
 633,4              2210,2 
 633,3              2160,8 
 633,2              2133,4 
 633,1              2151,4 
 633                2171 
 632,9              2204,2 
 632,8              2121 
 632,7              2137 
 632,6              2136,8 
 632,5              2186 
 632,4              2160,6 
 632,3              2118,8 
 632,2              2185,6 
 632,1              2115,6 
 632                2138,2 
 631,9              2134,6 
 631,8              2177,4 
 631,7              2168,2 
 631,6              2149,8 
 631,5              2175 
 631,4              2153,2 
 631,3              2121,6 
 631,2              2169,2 
 631,1              2168,2 
 631                2148 
 630,9              2132,4 
 630,8              2109,4 
 630,7              2165,6 
 630,6              2126,2 
 630,5              2187,6 
 630,4              2099,8 
 630,3              2117,6 
 630,2              2119,6 
 630,1              2129,4 
 630                2112,6 
