B.E.(eV)           Raw Intensity       Peak Sum            Background          Peak 1              1s1/2              difference
 90                 455,2 
 89,9               456,4 
 89,8               438,6 
 89,7               464,8 
 89,6               448,2 
 89,5               438,8 
 89,4               467,6 
 89,3               456,2 
 89,2               453 
 89,1               454,6 
 89                 460 
 88,9               433 
 88,8               452,8 
 88,7               450,2 
 88,6               455 
 88,5               451,4 
 88,4               458,2 
 88,3               442 
 88,2               455,2 
 88,1               452,6 
 88                 455,6 
 87,9               451,4 
 87,8               450,8 
 87,7               457 
 87,6               465,6 
 87,5               474,6 
 87,4               457,6 
 87,3               461,4 
 87,2               479 
 87,1               447 
 87                 455,2 
 86,9               443,4 
 86,8               436,8 
 86,7               450,4 
 86,6               465,2 
 86,5               461,4 
 86,4               452,8 
 86,3               444,8 
 86,2               443,4 
 86,1               453,4 
 86                 434,6 
 85,9               442,4 
 85,8               450,4 
 85,7               436,4 
 85,6               420,8 
 85,5               424,4 
 85,4               418,2 
 85,3               423,6 
 85,2               420,4 
 85,1               430,8 
 85                 434,2 
 84,9               430,4 
 84,8               411,8 
 84,7               431,8 
 84,6               429,6 
 84,5               425,4 
 84,4               424,2 
 84,3               408,2 
 84,2               422,8 
 84,1               420,2 
 84                 428,4 
 83,9               438,6 
 83,8               424,8 
 83,7               417,8 
 83,6               430,2 
 83,5               425,6 
 83,4               415,8 
 83,3               427,4 
 83,2               403,8 
 83,1               418,8 
 83                 414,6 
 82,9               412,8 
 82,8               415,6 
 82,7               420,8 
 82,6               406,4 
 82,5               416,6 
 82,4               408 
 82,3               420,4 
 82,2               425,2 
 82,1               407,2 
 82                 420,6 
 81,9               421,6 
 81,8               420,4 
 81,7               405,8 
 81,6               430,6 
 81,5               425,4 
 81,4               424,6 
 81,3               407,4 
 81,2               427 
 81,1               416,2 
 81                 424,4 
 80,9               404,4 
 80,8               417,4 
 80,7               421,4 
 80,6               413,8 
 80,5               406,2 
 80,4               404,8 
 80,3               412,8 
 80,2               410 
 80,1               426 
 80                 418,4 
 79,9               423,6 
 79,8               413,4 
 79,7               426,6 
 79,6               412,2 
 79,5               423,6 
 79,4               412,2 
 79,3               438 
 79,2               429,2 
 79,1               426,4 
 79                 419,6 
 78,9               423,6 
 78,8               431,2 
 78,7               424,4 
 78,6               445 
 78,5               445 
 78,4               429,2 
 78,3               423,8 
 78,2               433,6 
 78,1               426,8 
 78                 419,4 
 77,9               420,6 
 77,8               435,6 
 77,7               438 
 77,6               444,6 
 77,5               452,6 
 77,4               447,4 
 77,3               440 
 77,2               440 
 77,1               444,2 
 77                 450,6 
 76,9               445,6 
 76,8               445,6 
 76,7               439,8 
 76,6               457,2 
 76,5               454,4 
 76,4               448,8 
 76,3               449,2 
 76,2               454,6 
 76,1               459,8 
 76                 460 
 75,9               456,8 
 75,8               463,4 
 75,7               463,2 
 75,6               445,6 
 75,5               462,4 
 75,4               451,6 
 75,3               474 
 75,2               470,6 
 75,1               467,6 
 75                 465 
 74,9               454,2 
 74,8               470,8 
 74,7               479,2 
 74,6               476,4 
 74,5               462 
 74,4               468,2 
 74,3               475,4 
 74,2               470,8 
 74,1               477,2 
 74                 474,6 
 73,9               484,4 
 73,8               480 
 73,7               455,4 
 73,6               472,4 
 73,5               449,6 
 73,4               479,2 
 73,3               466,4 
 73,2               470 
 73,1               460,4 
 73                 470,8 
 72,9               480,4 
 72,8               486,6 
 72,7               484,8 
 72,6               479,8 
 72,5               475 
 72,4               485,4 
 72,3               494,2 
 72,2               479,2 
 72,1               496,2 
 72                 507,2 
 71,9               499,4 
 71,8               507,4 
 71,7               487 
 71,6               493,2 
 71,5               516,8 
 71,4               494,8 
 71,3               514,4 
 71,2               512,8 
 71,1               525,2 
 71                 546,8 
 70,9               521,2 
 70,8               527,2 
 70,7               515,8 
 70,6               535,6 
 70,5               526,4 
 70,4               525 
 70,3               529,8 
 70,2               532 
 70,1               529,8 
 70                 517,2 
 69,9               517,6 
 69,8               506,4 
 69,7               490,4 
 69,6               485,4 
 69,5               486,6 
 69,4               473 
 69,3               469,8 
 69,2               482 
 69,1               447,2 
 69                 453,4 
 68,9               424,6 
 68,8               431,6 
 68,7               422,2 
 68,6               422 
 68,5               397,8 
 68,4               392,6 
 68,3               384,8 
 68,2               399,2 
 68,1               402,4 
 68                 395,4 
 67,9               384,6 
 67,8               374,2 
 67,7               398,6 
 67,6               376,4 
 67,5               397,8 
 67,4               389,4 
 67,3               386 
 67,2               386,4 
 67,1               383,8 
 67                 400,4 
 66,9               403 
 66,8               396,4 
 66,7               403,8 
 66,6               418,2 
 66,5               396,6 
 66,4               425 
 66,3               406 
 66,2               418,8 
 66,1               404,8 
 66                 411,4 
 65,9               420 
 65,8               420,8 
 65,7               415,2 
 65,6               431 
 65,5               430,8 
 65,4               434,4 
 65,3               424,4 
 65,2               432 
 65,1               423,2 
 65                 430,8 
 64,9               433,2 
 64,8               422,8 
 64,7               457,6 
 64,6               434 
 64,5               449,2 
 64,4               458,8 
 64,3               441,8 
 64,2               444,8 
 64,1               442,6 
 64                 436,8 
 63,9               456,8 
 63,8               427,6 
 63,7               428,8 
 63,6               404,6 
 63,5               417,6 
 63,4               397 
 63,3               398,6 
 63,2               405,2 
 63,1               398,6 
 63                 358,6 
 62,9               378,4 
 62,8               374,2 
 62,7               358,4 
 62,6               368,4 
 62,5               349,8 
 62,4               345,4 
 62,3               347,8 
 62,2               340,8 
 62,1               347,4 
 62                 321,8 
 61,9               329,8 
 61,8               327,6 
 61,7               307 
 61,6               316,8 
 61,5               300,8 
 61,4               312,8 
 61,3               305,8 
 61,2               309 
 61,1               294,4 
 61                 288,2 
 60,9               300,6 
 60,8               300,2 
 60,7               284,8 
 60,6               283,6 
 60,5               290,8 
 60,4               294,2 
 60,3               282,2 
 60,2               282,6 
 60,1               295,6 
 60                 290,6               290,8719            289,56              289,5601            290,8719           -0,3119202 
 59,9               292,8               290,1669            288,568             288,5681            290,1668            2,633087 
 59,8               291,2               289,5386            287,6017            287,6019            289,5385            1,661407 
 59,7               285,8               288,9625            286,6305            286,6307            288,9623           -3,162506 
 59,6               285,8               288,4146            285,6238            285,6241            288,4143           -2,614563 
 59,5               289,6               287,9446            284,6252            284,6257            287,9442            1,655365 
 59,4               275                 287,5892            283,665             283,6656            287,5886           -12,5892 
 59,3               282,6               287,207             282,5958            282,5967            287,2061           -4,607025 
 59,2               283,4               286,9814            281,5958            281,5972            286,9801           -3,581421 
 59,1               295                 286,8621            280,6102            280,6122            286,8602            8,137878 
 59                 291,6               286,9387            279,7251            279,7279            286,9359            4,661346 
 58,9               288                 287,0926            278,8199            278,8239            287,0887            0,9073792 
 58,8               296,6               287,3233            277,8932            277,8988            287,3176            9,276733 
 58,7               291,8               287,7268            277,0425            277,0504            287,7189            4,073151 
 58,6               289,6               288,1927            276,1603            276,1715            288,1815            1,407288 
 58,5               300,6               288,7364            275,2675            275,2832            288,7208            11,86359 
 58,4               288,8               289,4558            274,4698            274,4914            289,4342           -0,6558533 
 58,3               291,6               290,1583            273,5841            273,614             290,1284            1,441742 
 58,2               282,4               290,9487            272,728             272,7689            290,9078           -8,548706 
 58,1               288                 291,7167            271,8051            271,8609            291,6609           -3,716675 
 58                 294,4               292,5644            270,9344            271,0098            292,489             1,835632 
 57,9               285,2               293,4796            270,1217            270,2232            293,3782           -8,279633 
 57,8               291                 294,3183            269,2421            269,3777            294,1826           -3,318268 
 57,7               308,2               295,1801            268,4158            268,5961            294,9998            13,01987 
 57,6               301,2               296,1354            267,7333            267,9716            295,8971            5,064636 
 57,5               297,8               296,9695            267,0004            267,3133            296,6566            0,8305054 
 57,4               294                 297,6927            266,2463            266,6546            297,2843           -3,692657 
 57,3               307,4               298,2846            265,4678            265,9975            297,7549            9,115417 
 57,2               292,6               298,8678            264,8025            265,4854            298,1849           -6,267761 
 57,1               301,6               299,2048            264,0244            264,8995            298,3297            2,395233 
 57                 306                 299,4785            263,3243            264,439             298,3639            6,521515 
 56,9               301,6               299,6482            262,665             264,076             298,2372            1,951813 
 56,8               295,8               299,6449            261,9758            263,7513            297,8694           -3,84491 
 56,7               290,4               299,4643            261,2457            263,4662            297,2438           -9,06427 
 56,6               294                 299,1221            260,4785            263,2386            296,362            -5,122131 
 56,5               297,8               298,7083            259,746             263,1561            295,2982           -0,9082947 
 56,4               297,8               298,2473            259,0498            263,2372            294,0598           -0,4472656 
 56,3               308                 297,7367            258,3591            263,4699            292,6258            10,26334 
 56,2               289,6               297,2909            257,7553            263,9553            291,0909           -7,690857 
 56,1               285,8               296,7178            257,0095            264,4851            289,2422           -10,91785 
 56                 289,4               296,1754            256,2393            265,1982            287,2164           -6,77536 
 55,9               291,4               295,765             255,504             266,1753            285,0937           -4,365021 
 55,8               286,6               295,5171            254,7905            267,4244            282,8832           -8,917114 
 55,7               296                 295,4204            254,0444            268,9109            280,5539            0,5795593 
 55,6               300,2               295,6304            253,3793            270,7669            278,2429            4,56958 
 55,5               307,6               296,1438            252,7531            272,9655            275,9313            11,45621 
 55,4               308,2               297,0205            252,1908            275,5445            273,6669            11,1795 
 55,3               303,8               298,235             251,6379            278,4572            271,4158            5,564941 
 55,2               303                 299,7697            251,0543            281,6663            269,1577            3,230255 
 55,1               293,8               301,6681            250,4689            285,198             266,939            -7,868103 
 55                 313,2               303,8684            249,8148            288,9752            264,7079            9,331604 
 54,9               313,4               306,5952            249,3207            293,2098            262,7061            6,804749 
 54,8               304,2               309,6797            248,8322            297,7224            260,7895           -5,479675 
 54,7               325                 313,0211            248,2742            302,4044            258,8908            11,97894 
 54,6               326,2               316,8239            247,8866            307,4548            257,2556            9,37616 
 54,5               325,8               320,8837            247,5117            312,6658            255,7295            4,91629 
 54,4               325                 325,1321            247,1366            317,9677            254,3009           -0,1321106 
 54,3               338,4               329,5015            246,7581            323,2935            252,966             8,898529 
 54,2               333                 334,0328            246,4896            328,6862            251,8362           -1,032837 
 54,1               322,8               338,4976            246,1801            333,9209            250,7569           -15,69763 
 54                 341                 342,7755            245,7917            338,8815            249,6857           -1,775513 
 53,9               337,8               347,0099            245,5517            343,7169            248,8446           -9,2099 
 53,8               339                 350,9448            245,288             348,177             248,0558           -11,94476 
 53,7               355                 354,5332            245,036             352,2209            247,3483            0,4667969 
 53,6               370,6               357,816             244,9137            355,8961            246,8337            12,78397 
 53,5               360,8               360,7178            244,917             359,1333            246,5015            8,215332E-02 
 53,4               340                 362,9725            244,842             361,6727            246,1417           -22,9725 
 53,3               359,4               364,4406            244,6015            363,3809            245,6612           -5,040588 
 53,2               370,2               365,4037            244,5179            364,545             245,3766            4,796326 
 53,1               360                 365,7641            244,5211            365,0725            245,2127           -5,76413 
 53                 344,2               365,3393            244,4428            364,7856            244,9965           -21,13928 
 52,9               371                 364,0846            244,2391            363,644             244,6796            6,915405 
 52,8               367,6               362,3542            244,2509            362,0058            244,5993            5,245789 
 52,7               372                 359,9319            244,2355            359,658             244,5093            12,06812 
 52,6               362,4               356,9185            244,2553            356,7045            244,4693            5,481476 
 52,5               354,2               353,2518            244,1983            353,0857            244,3645            0,9481812 
 52,4               347,6               349,0027            244,0764            348,8744            244,2046           -1,402649 
 52,3               353,2               344,2507            243,9027            344,1523            244,0011            8,94928 
 52,2               347,8               339,1666            243,7751            339,0916            243,8501            8,633423 
 52,1               338,2               333,7377            243,6055            333,6809            243,6623            4,46228 
 52                 331,8               328,0092            243,3605            327,9664            243,4033            3,790741 
 51,9               343,4               322,0845            243,0664            322,0524            243,0985            21,31552 
 51,8               309                 316,1824            242,8673            316,1586            242,8912           -7,182434 
 51,7               312,8               310,0072            242,3952            309,9896            242,4128            2,792786 
 51,6               311                 303,9317            241,9572            303,9187            241,9701            7,068329 
 51,5               291,8               297,9711            241,5083            297,9617            241,5177           -6,171143 
 51,4               291                 292,0391            240,9097            292,0322            240,9166           -1,039124 
 51,3               280,8               286,3282            240,3095            286,3233            240,3145           -5,528259 
 51,2               284,8               280,8005            239,6327            280,7969            239,6363            3,999512 
 51,1               268,6               275,5977            238,9932            275,5952            238,9958           -6,997681 
 51                 279,4               270,5792            238,2296            270,5774            238,2314            8,820801 
 50,9               263                 265,974             237,5582            265,9727            237,5595           -2,973999 
 50,8               253,6               261,57              236,7613            261,5691            236,7621           -7,969971 
 50,7               256,6               257,4238            235,8957            257,4232            235,8963           -0,8237915 
 50,6               244,2               253,6288            235,0609            253,6284            235,0614           -9,428787 
 50,5               238,6               250,0513            234,1339            250,051             234,1342           -11,45132 
 50,4               241,6               246,7321            233,1695            246,7319            233,1697           -5,13208 
 50,3               256,2               243,7226            232,2368            243,7225            232,237             12,47739 
 50,2               238                 241,0961            231,4281            241,096             231,4282           -3,09613 
 50,1               229,4               238,5691            230,4806            238,569             230,4806           -9,169067 
 50                 230                 236,1979            229,4719            236,1979            229,472            -6,197906 
 49,9               221                 234,0352            228,4762            234,0351            228,4762           -13,03516 
 49,8               240,2               231,983             227,4165            231,983             227,4165            8,216949 
 49,7               226,6               230,2471            226,5185            230,2471            226,5185           -3,647064 
 49,6               218                 228,545             225,5192            228,545             225,5192           -10,545 
 49,5               217                 226,8998            224,4592            226,8998            224,4592           -9,899796 
 49,4               228,6               225,3563            223,3996            225,3563            223,3996            3,243713 
 49,3               206,8               224,0003            222,4411            224,0003            222,4411           -17,20026 
 49,2               220                 222,5511            221,3163            222,5511            221,3163           -2,551117 
 49,1               216,8               221,2778            220,3058            221,2778            220,3058           -4,477798 
 49                 204,6               220,0383            219,2778            220,0383            219,2778           -15,43831 
 48,9               209,8               218,7521            218,1606            218,7521            218,1606           -8,952057 
 48,8               212,2               217,551             217,0939            217,551             217,0939           -5,351028 
 48,7               213,4               216,406             216,0548            216,406             216,0548           -3,006027 
 48,6               216,4               215,3018            215,0336            215,3018            215,0336            1,098206 
 48,5               208,2               214,2481            214,0445            214,2481            214,0445           -6,048065 
 48,4               216,2               213,1514            212,9979            213,1514            212,9979            3,048599 
 48,3               217                 212,1385            212,0235            212,1385            212,0235            4,86145 
 48,2               210,8               211,1489            211,0632            211,1489            211,0632           -0,348938 
 48,1               197,4               210,1246            210,0611            210,1246            210,0611           -12,72459 
 48                 212,2               209,0068            208,96              209,0068            208,96             -4,676819E-02 
